 gf5100                                                                          
 gf-cutoff: N/A,  ionization potential (Ky):   3.40282347E+38
 compr thres: 0.0000
          27          51  number of levels and lines
        0.0 5p3 4S     1    1    4
     8512.1 5p3 2D     1    2    4
     9854.1 5p3 2D     1    3    6
    16395.6 5p3 2P     1    4    2
    18464.5 5p3 2P     1    5    4
    43249.4 6s  4P     1    6    2
    45945.4 6s  4P     1    7    4
    46991.1 6s  2P     1    8    2
    48332.5 6s  4P     1    9    6
    49391.1 6s  2P     1   10    4
    53443.3 6          1   11    6
    53528.3 7          1   12    4
    55120.7 8          1   13    6
    55233.2 6s' 2D     1   14    4
    55728.3 6s' 2D     1   15    6
    56152.1 12         1   16    4
    56699.0 13         1   17    2
    56733.4 14         1   18    4
    57287.2 15         1   19    1
    57597.3 7s  4P     1   20    2
    58746.6 18         1   21    4
    58863.4 19         1   22    6
    59737.9 20         1   23    2
    60404.1 21         1   24    6
    60580.8 22         1   25    4
    61808.8 26         1   26    4
    65653.2 6s" 2S     1   27    2
    4   27 -1.351  2.0295E+03
    3   22 -1.648  2.0398E+03
    2   19 -1.072  2.0496E+03
    1    9 -0.992  2.0683E+03
    2   16 -1.222  2.0984E+03
    5   27 -1.592  2.1185E+03
    1    8 -2.132  2.1274E+03
    2   14 -1.232  2.1397E+03
    2   13 -1.242  2.1449E+03
    1    7 -1.352  2.1758E+03
    3   15 -1.518  2.1792E+03
    4   26 -1.301  2.2013E+03
    3   13 -1.528  2.2084E+03
    2   12 -1.572  2.2207E+03
    2   11 -1.872  2.2249E+03
    4   25 -0.841  2.2625E+03
    3   12 -2.108  2.2890E+03
    3   11 -1.558  2.2934E+03
    4   23 -1.081  2.3065E+03
    1    6 -1.532  2.3115E+03
    4   21 -1.381  2.3605E+03
    5   25 -1.332  2.3737E+03
    5   24 -1.322  2.3837E+03
    5   23 -1.322  2.4221E+03
    4   20 -0.901  2.4263E+03
    2   10 -1.162  2.4455E+03
    5   22 -1.662  2.4746E+03
    4   18 -0.431  2.4783E+03
    4   17 -1.141  2.4804E+03
    2    9 -2.002  2.5105E+03
    3   10 -0.048  2.5285E+03
    5   20 -1.832  2.5546E+03
    4   14 -0.791  2.5741E+03
    2    8  0.208  2.5980E+03
    5   18 -0.382  2.6123E+03
    5   16 -0.412  2.6526E+03
    2    7 -1.092  2.6706E+03
    5   15 -0.772  2.6828E+03
    4   12 -1.021  2.6922E+03
    5   14 -0.692  2.7189E+03
    5   13 -1.222  2.7272E+03
    3    7 -0.838  2.7699E+03
    5   12 -1.102  2.8511E+03
    2    6 -0.752  2.8779E+03
    4   10 -0.141  3.0298E+03
    5   10 -0.062  3.2325E+03
    4    8 -0.041  3.2675E+03
    4    7 -1.061  3.3831E+03
    5    7 -1.262  3.6379E+03
    4    6 -1.571  3.7228E+03
    5    6 -1.862  4.0336E+03
