 gf7000                                                                          
 gf-cutoff: N/A,  ionization potential (Ky):   3.40282347E+38
 compr thres: 0.0000
          70          84  number of levels and lines
        0.0 6s2  1S    1    1    1
    17288.4 s6p  *3P   1    2    1
    17992.0 s6p  *3P   1    3    3
    17992.0 s6p  *3P   1   17    3
    19710.4 s6p  *3P   1    4    5
    23188.5 d6s2*(3.   1    5    5
    24489.1 d6s   3D   1    6    3
    24751.9 d6s   3D   1    7    5
    25068.2 s6p  *1P   1   18    3
    25068.2 s6p  *1P   1    8    3
    25270.9 d6s   3D   1    9    7
    25859.7 d6s2*(3.   1   10   11
    27314.9 d6s2*?     1   11   13
    27445.6 d6s2*(3.   1   12    7
    27677.7 d6s   1D   1   13    5
    28184.5 d6s2*(3.   1   14    9
    28857.0 d6s2*(3.   1   19    3
    29775.0 d6s2*(3.   1   15    9
    30524.7 d6s2*(3.   1   16   11
    32694.7 s7s   3S   1   20    3
    37414.6 d26s*?     1   21    3
    38090.7 s7p  *3P   1   22    1
    38174.2 s7p  *3P   1   23    3
    38422.4 d26s*?     1   24    3
    38551.9 s7p  *3P   1   25    5
    39808.7 s6d   3D   1   26    3
    39838.0 s6d   3D   1   27    5
    39880.3 d6sp (3.   1   28    5
    39966.1 s6d   3D   1   29    7
    40061.5 s6d   1D   1   30    5
    40564.0 s7p  *1P   1   31    3
    41615.0 s8s   3S   1   32    3
    41827.3 d6sp       1   33    7
    41939.9 s8s   1S   1   34    1
    42436.7 d6sp (3.   1   35    3
    42647.7 20         3   36   15
    42725.8 60         3   37   15
    42935.8 d6sp (3.   1   38   11
    43254.8 35 H       1   39    7
    43297.5 35 H       1   40    7
    43433.9 150 H      2   41   10
    43805.4 6p2  3P    1   42    3
    43814.1 d6sp (3.   1   43   13
    43815.8 100        1   44    7
    44357.6 s7d   1D   1   45    5
    44380.8 s7d   3D   1   46    7
    44453.5 220        2   47   14
    44760.4 6p2  3P    1   48    5
    45155.3 40         2   49   10
    45338.5 d6sp       1   50    5
    45410.9 d6sp       1   51   11
    46081.5 d6sp (3.   1   52    1
    46554.8 d6sp       1   53   13
    46883.0            1   54    1
    47036.6 d6sp (3.   1   55   13
    47055.1 60 H       3   56   15
    47636.1 d6sp       1   57   11
    47821.8 60 H       1   58    5
    47859.3 70         1   59    3
    47911.5 d6sp (3.   1   60   11
    48135.6 d6sp (3.   1   61    5
    48449.3 120 D      1   62    5
    48488.0 120        1   63    7
    48787.7 d6sp (3.   1   64    9
    49223.4 d6sp       1   65    7
    52874.8 d6sp (3.   1   66   13
    54718.3 d6sp       1   67   11
    57429.7 d6sp       1   68   11
    58732.1 d6sp       1   69    9
    61384.0            1   70   11
    1   31 -0.766  2.4645E+03
    1   21 -1.118  2.6720E+03
   11   70 -1.587  2.9344E+03
   16   70 -1.385  3.2396E+03
   14   68 -0.636  3.4184E+03
   15   69 -0.836  3.4524E+03
    3   54 -0.133  3.4603E+03
    1   19 -1.039  3.4644E+03
    4   61 -1.038  3.5170E+03
    3   52 -1.207  3.5590E+03
   11   67 -1.019  3.6482E+03
    3   50 -0.853  3.6557E+03
   10   66 -0.932  3.7006E+03
    3   48 -0.595  3.7347E+03
    2   42  0.262  3.7701E+03
    3   45 -1.102  3.7917E+03
    5   65 -0.259  3.8399E+03
    3   42 -0.388  3.8729E+03
    4   50 -0.413  3.9009E+03
   11   66 -0.632  3.9113E+03
    1   18 -0.195  3.9880E+03
    4   48 -0.017  3.9909E+03
    5   61 -0.868  4.0074E+03
    4   46 -1.167  4.0523E+03
    3   35 -0.373  4.0897E+03
    4   42 -0.380  4.1491E+03
    3   34 -0.972  4.1746E+03
    7   62 -0.382  4.2187E+03
    3   32 -0.993  4.2320E+03
    6   59 -0.448  4.2777E+03
    9   63 -0.497  4.3060E+03
    8   58 -0.485  4.3937E+03
    6   56 -0.568  4.4302E+03
    2   26 -0.111  4.4392E+03
    7   56 -0.624  4.4824E+03
    4   32 -1.267  4.5640E+03
    3   27 -0.382  4.5762E+03
    3   26 -0.889  4.5824E+03
    9   56 -0.823  4.5892E+03
   10   57 -0.647  4.5908E+03
   12   64 -0.827  4.6843E+03
    6   49 -0.863  4.8375E+03
    4   30 -1.859  4.9124E+03
    4   29 -0.445  4.9355E+03
    4   27 -1.158  4.9669E+03
   14   60 -1.066  5.0678E+03
   11   55 -0.965  5.0691E+03
    7   47 -0.368  5.0743E+03
    8   48 -0.751  5.0768E+03
   11   53 -1.059  5.1961E+03
    9   47 -0.892  5.2116E+03
    7   44 -0.746  5.2441E+03
    6   41 -0.386  5.2770E+03
    7   41 -1.289  5.3513E+03
    5   33 -1.483  5.3637E+03
    6   37 -0.821  5.4819E+03
    6   36 -1.001  5.5055E+03
   11   51 -1.667  5.5246E+03
    1   17 -1.755  5.5565E+03
    7   37 -1.258  5.5621E+03
   10   43 -1.709  5.5681E+03
    7   36 -1.505  5.5864E+03
   13   49 -0.126  5.7200E+03
    8   35 -1.571  5.7560E+03
   14   51 -1.673  5.8034E+03
   10   38 -1.621  5.8545E+03
    5   28 -1.824  5.9893E+03
   16   55 -1.506  6.0546E+03
   13   40 -1.005  6.4003E+03
   13   39 -1.007  6.4179E+03
    2   20 -0.600  6.4891E+03
   13   37 -1.270  6.6435E+03
    8   30 -0.415  6.6678E+03
   13   36 -1.398  6.6782E+03
    8   27 -1.281  6.7687E+03
    3   20 -0.709  6.7996E+03
    7   25 -2.015  7.2444E+03
    6   23 -1.880  7.3052E+03
    7   24 -1.973  7.3131E+03
    6   22 -1.581  7.3500E+03
    7   23 -1.582  7.4483E+03
    9   25 -1.588  7.5275E+03
    4   20 -0.733  7.6995E+03
    7   21 -2.152  7.8951E+03
