 gf7301                                                                          
 gf-cutoff: N/A,  ionization potential (Ky):   3.40282347E+38
 compr thres: 0.0000
         130         270  number of levels and lines
        0.0 6s  a5F    1    1    3
     1031.4 6s  a5F    1    2    5
     2642.3 6s  a5F    1    3    7
     3180.0 6s2 a3F    1    4    5
     4124.9 6s2 a3P    1    5    1
     4415.7 6s2 a5F    1    6    9
     4415.8 6s  a5F    1    7    9
     5330.8 6s2 a3P    1    8    3
     5657.9 6s2 a3P    1    9    5
     6186.8 6s  a5F    1   10   11
     6831.3 6s2 a3F    1   11    7
     9690.5 6s  b3F    1   12    5
     9746.3 6s2 a3F    1   13    9
    10713.2 6s  a5P    1   14    3
    11767.2 6s  a3G    1   15    7
    11875.5 6s  a5P    1   16    5
    12435.8 6s  a5P    1   17    7
    12600.9 5d4 a5D    1   18    1
    12705.3 6s  a3G    1   19    9
    13475.4 5d4 a5D    1   20    3
    13560.2 6s2 a1D    1   21    5
    14494.9 5d4 a5D    1   22    5
    14581.1 6s  b3F    1   23    7
    14627.6 6s  a3D    1   24    3
    15726.2 5d4 a5D    1   25    7
    15851.1 6s  a3H    1   26    9
    17168.5 6s  a3D    1   27    5
    17231.2 5d4 a5D    1   28    9
    17982.0 6s  a3H    1   29   13
    18186.0 6s  a3H    1   30   11
    18493.7 6s  b3F    1   31    9
    18553.8 6s  a3D    1   32    7
    24226.2 6s  a1H    1   33   11
    24869.6 6s  a1F    1   34    7
    28044.1 6s  c3P    1   35    5
    29256.9 *          1   37    5
    31267.1 6s  b3G    1   36   11
    32318.4 *          1   38    7
    33706.5 *          1   39    3
    33715.3 *          1   40    5
    36113.0 *          1   41    9
    36177.1 *          1   42    5
    36763.7 *          1   43    7
    36987.7 *          1   44    3
    37230.8 *          1   45    5
    38515.6 *          1   46    5
    38535.2 *          1   47    3
    38562.3 *          1   48    7
    38962.3 *          1   49    7
    39295.8 *          1   50    7
    39743.7 *          1   51    9
    40023.7 *          1   52    1
    40233.5 *          1   53    5
    40304.8 *          1   54    3
    41144.9 *          1   55    5
    41355.1 *          1   56    3
    41554.4 *          1   57    7
    41709.0 *          1   58   11
    41775.3 *          1   59    9
    42122.9 *          1   60    9
    42153.3 *          1   61    5
    42959.6 *          1   62    7
    43064.9 *          1   63    5
    43544.5 *          1   64    7
    43553.7 *          1   65    3
    44005.2 *          1   66    9
    44206.2 *          1   67    3
    44259.2 *          1   68    5
    44430.4 *          1   69    7
    44434.8 *          1   70    1
    44585.2 *          1   71   11
    44626.0 *          1   72    9
    44835.2 *          1   73    7
    45233.9 *          1   74    3
    45446.9 *          1   75    5
    46174.6 *          1   76    3
    46295.0 *          1   77   11
    46387.2 *          1   78    5
    46645.7 *          1   79    9
    46831.4 *          1   80    7
    46850.6 *          1   81    5
    47168.9 *          1   82    7
    47280.9 *          1   83    9
    47514.5 *          1   84    5
    47596.0 *          1   85    3
    47801.0 *          1   86    1
    47825.4 *          1   87    7
    47829.8 *          1   88   13
    48064.6 *          1   89    1
    48223.1 *          1   90    5
    48470.4 *          1   91    9
    48776.3 *          1   92    3
    48962.5 *          1   93    7
    49080.5 *          1   94    5
    49536.2 *          1   95    7
    49646.6 *          1   96    7
    49937.7 *          1   97    9
    50314.4 *          1   98    7
    51073.9 *          1   99    7
    51479.9 *          1  100    9
    51534.3 *          1  101    5
    51753.7 *          1  102   11
    52121.1 *          1  103    7
    52155.8 *          1  104    3
    52493.0 *          1  105    9
    52580.4 *          1  106    7
    52824.5 *          1  107    3
    52846.3 *          1  108   13
    53010.9 *          1  109    5
    53234.6 *          1  110   11
    53343.6 *          1  111    9
    53465.8 *          1  112    7
    53644.8 *          1  113    5
    54048.8 *          1  114   11
    54206.7 *          1  115    9
    54648.7 *          1  116    7
    55128.4 *          1  117    7
    55505.1 *          1  118   11
    55543.1 *          1  119    7
    55859.3 *          1  120    5
    56018.8 *          1  121    5
    56142.5 *          1  122    9
    56351.1 *          1  123    7
    56450.8 *          1  124   11
    56521.8 *          1  125   11
    56753.1 *          1  126    9
    61105.7 *          1  127    9
    62317.9 *          1  128    5
    64653.4 *          1  129    7
    66610.3 *          1  130   11
    2   85 -0.669  2.1469E+03
    2   84 -0.969  2.1506E+03
    1   76 -0.887  2.1650E+03
    6   98 -0.914  2.1780E+03
    2   80 -0.649  2.1827E+03
    3   90 -0.945  2.1932E+03
   10  102 -0.561  2.1939E+03
    7   97 -0.424  2.1961E+03
    1   75 -0.417  2.1997E+03
    1   74 -0.437  2.2100E+03
    7   95 -0.924  2.2156E+03
    3   83 -0.375  2.2395E+03
   13  115 -0.684  2.2485E+03
    1   70 -0.767  2.2498E+03
    2   75 -0.449  2.2508E+03
    4   84 -0.829  2.2549E+03
   17  126 -0.165  2.2558E+03
   13  114 -0.484  2.2565E+03
    1   68 -0.697  2.2587E+03
    1   67 -0.487  2.2614E+03
    2   74 -1.099  2.2616E+03
    3   80 -0.405  2.2623E+03
   19  126 -0.484  2.2696E+03
    3   79 -0.535  2.2718E+03
    4   82 -0.219  2.2726E+03
    2   73 -0.919  2.2822E+03
    8   94 -0.617  2.2850E+03
    3   78 -0.485  2.2853E+03
   13  112 -0.144  2.2866E+03
   17  122 -0.265  2.2873E+03
    4   81 -0.159  2.2892E+03
   19  122 -0.494  2.3015E+03
    9   94 -0.179  2.3022E+03
    7   87 -0.554  2.3029E+03
    2   69 -0.879  2.3035E+03
    9   93 -0.839  2.3085E+03
    2   68 -0.719  2.3126E+03
    2   67 -0.719  2.3154E+03
   17  119 -0.095  2.3191E+03
   15  116 -0.505  2.3313E+03
    7   83 -0.364  2.3322E+03
   11   96 -0.515  2.3349E+03
   19  118 -0.374  2.3357E+03
   11   95 -0.445  2.3409E+03
   17  117 -0.095  2.3416E+03
    8   86 -0.227  2.3539E+03
   12  103 -0.099  2.3561E+03
    7   80 -0.884  2.3569E+03
   13  103 -0.264  2.3592E+03
   10   91 -0.121  2.3643E+03
    7   79 -1.294  2.3673E+03
    3   73 -0.935  2.3693E+03
    9   87 -0.129  2.3708E+03
   11   93 -0.775  2.3728E+03
   14  107 -0.007  2.3739E+03
    2   63 -0.939  2.3783E+03
    3   72 -0.435  2.3811E+03
    9   85 -0.329  2.3837E+03
    2   62 -0.749  2.3843E+03
    7   77  0.226  2.3871E+03
    9   84 -0.629  2.3884E+03
   12  101  0.001  2.3891E+03
    4   73 -1.079  2.3999E+03
   10   88  0.609  2.4006E+03
    3   68 -0.865  2.4021E+03
   16  112  0.001  2.4037E+03
    9   82 -0.359  2.4083E+03
   23  121 -0.405  2.4125E+03
   11   90 -0.095  2.4152E+03
    3   66 -0.445  2.4169E+03
    1   56 -1.047  2.4173E+03
   23  120  0.235  2.4218E+03
    4   69 -0.479  2.4235E+03
   17  113  0.095  2.4259E+03
    9   80 -0.589  2.4280E+03
    1   55 -0.317  2.4297E+03
    2   61 -1.009  2.4311E+03
   10   83  0.029  2.4327E+03
    4   68 -0.559  2.4336E+03
   17  112  0.135  2.4365E+03
   11   87 -0.325  2.4386E+03
    3   64 -0.835  2.4441E+03
   15  105 -0.255  2.4547E+03
   17  109  0.285  2.4638E+03
    2   57 -0.809  2.4670E+03
    9   76 -0.229  2.4674E+03
   26  123 -0.164  2.4684E+03
   10   79 -0.041  2.4709E+03
    7   73 -0.684  2.4733E+03
    4   64 -0.369  2.4767E+03
    3   62 -0.985  2.4796E+03
   16  104  0.271  2.4819E+03
    1   53 -0.947  2.4847E+03
    7   71 -0.014  2.4887E+03
    1   52 -1.167  2.4978E+03
    7   69 -0.854  2.4983E+03
   12   96  0.171  2.5020E+03
    8   74 -0.227  2.5053E+03
   12   95  0.011  2.5089E+03
   25  119  0.235  2.5107E+03
    4   62 -0.719  2.5131E+03
   15  101 -0.135  2.5139E+03
    9   74 -0.289  2.5260E+03
    3   60 -0.185  2.5321E+03
   12   94  0.201  2.5379E+03
    2   54 -0.649  2.5455E+03
    9   73 -0.329  2.5517E+03
    3   59 -0.325  2.5546E+03
    7   64 -0.804  2.5549E+03
    8   70 -0.147  2.5565E+03
   12   92  0.231  2.5577E+03
    3   57 -0.865  2.5691E+03
    8   67  0.283  2.5715E+03
   19  100 -0.154  2.5782E+03
   13   91 -0.694  2.5816E+03
   20  104  0.673  2.5845E+03
   11   75 -0.925  2.5889E+03
    9   68 -0.569  2.5898E+03
   21  104 -0.359  2.5902E+03
    7   62 -0.254  2.5937E+03
    1   47 -0.447  2.5943E+03
    1   46 -0.857  2.5956E+03
    3   55 -0.495  2.5964E+03
   10   72 -0.911  2.6007E+03
   10   71  0.029  2.6035E+03
   26  115  0.016  2.6064E+03
    2   50 -1.009  2.6126E+03
   31  125  0.126  2.6288E+03
   11   73 -0.625  2.6305E+03
   31  124  0.216  2.6338E+03
    2   49  0.001  2.6356E+03
    9   64 -0.589  2.6387E+03
   15   96 -0.275  2.6392E+03
   11   72 -0.455  2.6451E+03
   16   96  0.351  2.6467E+03
    7   60 -0.504  2.6512E+03
   11   69 -0.465  2.6588E+03
    3   53 -1.125  2.6594E+03
   24  104 -0.017  2.6639E+03
   29  118 -0.184  2.6642E+03
    2   47 -0.769  2.6656E+03
    2   46 -1.489  2.6670E+03
   34  128  0.765  2.6696E+03
    9   63 -0.549  2.6725E+03
   26  110 -0.124  2.6742E+03
    7   59 -0.084  2.6759E+03
   14   89 -0.027  2.6765E+03
   30  118  0.019  2.6788E+03
    9   62 -0.129  2.6801E+03
    7   58 -0.634  2.6807E+03
    5   56  1.120  2.6852E+03
   11   66 -0.575  2.6893E+03
    7   57 -1.284  2.6918E+03
    4   54 -1.259  2.6928E+03
    3   51 -0.435  2.6945E+03
   14   86 -0.127  2.6955E+03
   13   80 -0.924  2.6957E+03
    1   44 -0.987  2.7028E+03
   13   79  0.136  2.7093E+03
   33  127 -0.221  2.7107E+03
   35  129  0.501  2.7307E+03
   32  117 -0.135  2.7333E+03
   13   77 -0.364  2.7353E+03
    9   61 -0.329  2.7393E+03
   27  113 -0.049  2.7407E+03
   25  103  0.315  2.7468E+03
   16   90 -0.079  2.7504E+03
    3   49 -0.555  2.7525E+03
   19   93 -0.264  2.7573E+03
   11   63 -0.835  2.7591E+03
    2   45 -0.599  2.7617E+03
    1   42 -1.097  2.7634E+03
    4   50 -1.269  2.7681E+03
    8   56 -0.387  2.7751E+03
   30  115 -0.291  2.7754E+03
   28  110 -0.384  2.7767E+03
   21   95 -0.069  2.7788E+03
    2   44 -1.239  2.7803E+03
    9   57 -0.509  2.7850E+03
    3   46 -1.435  2.7868E+03
   27  109  0.171  2.7892E+03
    8   55 -0.377  2.7914E+03
    4   49 -1.299  2.7939E+03
   19   91 -0.414  2.7952E+03
    2   43 -0.439  2.7978E+03
   10   58 -0.991  2.8143E+03
    9   55 -0.319  2.8171E+03
   14   76 -0.247  2.8191E+03
   23   97  0.095  2.8275E+03
   36  130  0.699  2.8286E+03
    7   51 -1.614  2.8298E+03
   11   60 -0.915  2.8327E+03
   26   99  0.036  2.8382E+03
   30  111 -0.001  2.8435E+03
    2   42 -0.859  2.8445E+03
   30  110 -0.061  2.8523E+03
   18   85  0.610  2.8567E+03
    8   54 -0.247  2.8584E+03
   11   59 -0.995  2.8609E+03
   28  103  0.076  2.8653E+03
   29  108  0.086  2.8674E+03
   20   90  0.303  2.8770E+03
   12   69 -0.289  2.8777E+03
   11   57 -0.955  2.8791E+03
   13   69 -1.014  2.8823E+03
    9   54 -0.869  2.8854E+03
    3   45 -1.435  2.8903E+03
   19   82 -0.424  2.9008E+03
    5   47 -0.070  2.9053E+03
   11   55 -1.295  2.9134E+03
   21   87 -0.339  2.9176E+03
   28  100  0.146  2.9190E+03
   25   97 -0.295  2.9221E+03
   32  106 -0.105  2.9380E+03
   23   91 -0.415  2.9499E+03
   12   64 -0.359  2.9530E+03
   25   95  0.225  2.9568E+03
   13   64 -1.094  2.9579E+03
    1   40 -0.467  2.9651E+03
    1   39 -1.377  2.9659E+03
   15   75 -0.745  2.9683E+03
   19   77 -0.334  2.9762E+03
   32  103  0.355  2.9782E+03
    3   41 -1.335  2.9868E+03
   22   87  0.001  2.9994E+03
   21   81 -0.409  3.0030E+03
   12   62 -0.539  3.0049E+03
    8   47 -0.657  3.0108E+03
    8   46  0.573  3.0126E+03
   11   51 -0.865  3.0375E+03
    9   47 -1.319  3.0407E+03
    5   44  0.070  3.0421E+03
   15   72 -0.265  3.0424E+03
   28   97  0.046  3.0566E+03
   23   83  0.065  3.0572E+03
   13   60 -0.904  3.0878E+03
   15   66 -0.465  3.1010E+03
   13   58 -0.544  3.1277E+03
    8   45 -0.917  3.1339E+03
   12   57 -0.699  3.1374E+03
   13   57 -0.954  3.1429E+03
   11   46 -1.415  3.1552E+03
   16   64 -0.659  3.1567E+03
    8   44 -0.937  3.1580E+03
   25   83 -0.085  3.1682E+03
    9   43 -0.749  3.2139E+03
   22   75 -0.049  3.2299E+03
    8   42 -0.797  3.2409E+03
    4   39 -1.059  3.2749E+03
    9   42 -1.169  3.2757E+03
   11   43 -1.025  3.3399E+03
   23   69 -0.085  3.3492E+03
    5   39 -0.520  3.3795E+03
   11   42 -0.955  3.4067E+03
   11   41 -1.055  3.4141E+03
    1   37 -1.997  3.4170E+03
   22   65 -0.159  3.4403E+03
   19   58 -0.714  3.4469E+03
    2   37 -1.839  3.5419E+03
   15   51 -0.505  3.5734E+03
   12   44 -1.059  3.6623E+03
   22   57 -0.549  3.6945E+03
    4   37 -1.509  3.8337E+03
   11   38 -1.815  3.9224E+03
   16   44 -1.549  3.9810E+03
   15   42 -1.765  4.0955E+03
   24   48 -0.477  4.1769E+03
   34   91  0.235  4.2359E+03
   12   37 -2.179  5.1094E+03
   24   40 -1.277  5.2375E+03
