 gf7900                                                                          
 gf-cutoff: N/A,  ionization potential (Ky):   3.40282347E+38
 compr thres: 0.0000
          49          61  number of levels and lines
        0.0 6s   2S    1    1    2
     9161.2 6s2  2D    1    2    6
    21435.2 6s2  2D    1    3    4
    37359.0 6p  *2P    1    4    2
    37359.0 6p  *2P    1   13    2
    41174.6 6p  *2P    1   14    4
    41174.6 6p  *2P    1    5    4
    42163.5 s6p  *3    1   15    6
    42163.5 s6p  *3    1    6    6
    45537.2 s6p  *4    1    7    8
    45537.2 s6p  *4    1   16    8
    46175.0 s6p  *5    1   17    6
    46175.0 s6p  *5    1    8    6
    47007.4 s6p  *6    1    9    4
    47007.4 s6p  *6    1   18    4
    51028.9 s6p  *8    1   19    8
    51653.5 s6p  *10   1   20    6
    53196.3 s6p  *4P   1   21    2
    54485.2 7s   2S    1   22    2
    54485.2 7s   2S    1   10    2
    56105.7 s6p  *4D   1   23    4
    58616.8 s6p  *15   1   24    6
    58845.4 s6p  *16   1   25    4
    58846.4 s6p  *2P   1   26    4
    60032.9 7p  *2P    1   27    2
    60032.9 7p  *2P    1   11    2
    60728.5 7p  *2P    1   28    4
    60728.5 7p  *2P    1   12    4
    61563.7 s6p  *2D   1   29    4
    61951.9 6d   2D    1   30    4
    62034.4 6d   2D    1   31    6
    63005.7 s6p  *2P   1   32    4
    64742.9 8s   2S    1   33    2
    66935.8 8p  *2P    1   34    2
    67469.7 7d   2D    1   35    4
    67487.1 8p  *2P    1   36    4
    67510.6 7d   2D    1   37    6
    67811.3 s7s   10   1   38    8
    68680.6 9s   2S    1   39    2
    68705.0 s7s   12   1   40    6
    69648.3 9p  *2P    1   41    2
    69969.9 9p  *2P    1   42    4
    69971.4 8d   2D    1   43    4
    70008.0 8d   2D    1   44    6
    70617.7 10s   2S   1   45    2
    71355.0 9d   2D    1   46    4
    71380.7 9d   2D    1   47    6
    72163.3 10d   2D   1   48    4
    72171.0 10d   2D   1   49    6
    1   42 -1.501  1.4292E+03
    1   41 -1.801  1.4358E+03
    1   36 -1.301  1.4818E+03
    1   34 -2.301  1.4940E+03
    1   32 -1.301  1.5872E+03
    1   29 -1.601  1.6243E+03
    1   28 -1.001  1.6467E+03
    1   27 -1.301  1.6658E+03
    1   26 -1.301  1.6993E+03
    1   21 -1.601  1.8798E+03
    2   25 -1.788  2.0121E+03
    2   24 -2.388  2.0214E+03
    2   20 -2.028  2.3526E+03
    2   19 -2.048  2.3877E+03
    1   14 -0.461  2.4279E+03
    3   28 -1.952  2.5442E+03
    3   27 -1.672  2.5901E+03
    2   18 -1.638  2.6415E+03
    1   13 -0.751  2.6759E+03
    3   24 -1.662  2.6887E+03
    2   17 -2.208  2.7009E+03
    2   16 -1.138  2.7483E+03
    4   48 -1.772  2.8724E+03
    3   23 -1.932  2.8834E+03
    4   46 -1.547  2.9407E+03
    4   45 -2.562  3.0059E+03
    2   15 -1.958  3.0292E+03
    4   43 -1.263  3.0654E+03
    2   14 -1.728  3.1228E+03
    4   39 -2.241  3.1918E+03
    5   49 -1.821  3.2253E+03
    5   48 -2.780  3.2260E+03
    5   47 -1.592  3.3096E+03
    5   46 -2.548  3.3125E+03
    4   35 -0.983  3.3201E+03
    5   45 -2.611  3.3954E+03
    5   44 -1.306  3.4672E+03
    5   43 -2.263  3.4716E+03
    5   39 -2.284  3.6345E+03
    4   33 -1.775  3.6507E+03
    5   37 -0.996  3.7960E+03
    5   35 -1.951  3.8019E+03
    6   38 -1.068  3.8979E+03
    3   17 -1.812  4.0409E+03
    4   30 -0.383  4.0651E+03
    5   33 -1.845  4.2418E+03
    7   40 -1.353  4.3151E+03
    8   40 -1.418  4.4373E+03
    7   38 -1.213  4.4883E+03
    9   40 -0.312  4.6075E+03
    5   31 -0.337  4.7926E+03
    5   30 -1.281  4.8116E+03
    4   22 -0.870  5.8374E+03
    3   13 -2.002  6.2782E+03
    5   22 -0.780  7.5107E+03
   11   39 -1.607  1.1560E+04
   12   39 -1.634  1.2572E+04
   10   28 -0.041  1.6013E+04
   10   27 -0.369  1.8021E+04
   11   33 -0.633  2.1225E+04
   12   33 -0.562  2.4903E+04
