 gf8200                                                                          
 gf-cutoff: N/A,  ionization potential (Ky):   3.40282347E+38
 compr thres: 0.0000
          23          38  number of levels and lines
        0.0 6p2  3P    1    1    1
     7819.3 6p2  3P    1    2    3
    10650.3 6p2  3P    1    3    5
    21457.8 6p2  1D    1    4    5
    29466.8 6p2  1S    1    5    1
    34959.9 p7s  *3P   1    7    1
    35287.2 p7s  *3P   1    8    3
    35287.2 p7s  *3P   1    6    3
    45443.2 p6d  *3F   1    9    5
    46060.8 p6d  *3D   1   10    5
    46068.4 p6d  *3D   1   11    3
    46328.7 p6d  *3F   1   12    7
    48188.6 p7s  *3P   1   13    5
    48686.9 p8s  *3P   1   14    3
    48726.3 p8s  *3P   1   15    1
    49439.6 p7s  *1P   1   16    3
    51944.1 p8p   3D   1   17    5
    52101.7 p7d  *3F   1   18    5
    52311.3 p7d  *3D   1   19    5
    52412.3 p7d  *3F   1   20    7
    52499.6 p7d  *3D   1   21    3
    53511.1 p9s  *3P   1   22    3
    62620.8 p8s  *3P   1   23    5
    1   16 -1.710  2.0220E+03
    1   14 -1.560  2.0533E+03
    1   11 -0.410  2.1700E+03
    2   19 -2.247  2.2469E+03
    3   22 -2.349  2.3324E+03
    3   21 -2.419  2.3888E+03
    3   20 -1.109  2.3938E+03
    3   19 -2.429  2.3996E+03
    2   16 -1.617  2.4019E+03
    3   18 -1.789  2.4117E+03
    4   23 -2.099  2.4286E+03
    2   15 -1.877  2.4438E+03
    2   14 -1.657  2.4462E+03
    2   13 -1.237  2.4764E+03
    3   16 -1.399  2.5773E+03
    2   11 -1.717  2.6137E+03
    2   10 -0.397  2.6142E+03
    3   14 -1.459  2.6283E+03
    2    9 -2.757  2.6571E+03
    3   13 -0.969  2.6632E+03
    3   12 -0.749  2.8020E+03
    3   10 -1.439  2.8232E+03
    1    8 -0.670  2.8331E+03
    3    9 -1.289  2.8733E+03
    4   21 -1.809  3.2205E+03
    4   16 -0.329  3.5727E+03
    2    8 -1.197  3.6396E+03
    4   14 -0.869  3.6715E+03
    2    7 -0.937  3.6835E+03
    4   13 -0.759  3.7399E+03
    4   12 -0.919  4.0196E+03
    3    8 -0.869  4.0578E+03
    4   11 -0.799  4.0621E+03
    4    9 -1.479  4.1680E+03
    5   16 -0.280  5.0054E+03
    5   14 -0.700  5.2014E+03
    6   17 -1.387  6.0019E+03
    4    8 -1.519  7.2290E+03
