 gf3800                                                                          
 gf-cutoff: N/A,  ionization potential (Ky):   3.40282347E+38
 compr thres: 0.0000
          54          74  number of levels and lines
        0.0 5s2 1S     1    1    1
    14276.4 s5p  3P    1    2    1
    14317.5 s5p  3P    1    3    1
    14504.4 s5p  3P    1   11    3
    14504.4 s5p  3P    1    4    3
    14898.6 s5p  3P    1    5    5
    18159.1 s4d  3D    1    6    3
    18218.8 s4d  3D    1    7    5
    18319.3 s4d  3D    1    8    7
    20149.7 s4d  1D    1    9    5
    21698.5 s5p  1P    1   12    3
    21698.5 s5P  1P    2   10    6
    29038.8 s6s  3S    1   13    3
    33266.9 d5p' 3F    1   14    5
    33589.7 d5p' 3F    1   15    7
    33826.9 d5p' 1D    1   16    5
    33853.5 s6p  3P    1   17    1
    33868.3 s6p  3P    1   18    3
    33919.3 d5p' 3F    1   19    9
    33973.1 s6p  3P    1   20    5
    34098.4 s6p  1P    1   21    3
    34727.5 s5d  1D    1   22    5
    35006.9 s5d  3D    1   23    3
    35022.0 s5d  3D    1   24    5
    35045.1 s5d  3D    1   25    7
    35193.5 5p2 3P     1   26    1
    35400.1 5p2 3P     1   27    3
    35674.7 5p2 3P     1   28    5
    36264.2 d5p' 3D    1   29    3
    36381.8 d5p' 3D    1   30    5
    36559.5 d5p' 3D    1   31    7
    36960.9 5p2 1D     1   32    5
    37160.3 5p2 1S     1   33    1
    37292.1 d5p' 3P    1   34    1
    37302.8 d5p' 3P    1   35    3
    37336.6 d5p' 3P    1   36    5
    37424.7 s7s  3S    2   37    6
    38444.1 s7s  1S    1   38    1
    38750.5 s4f  3F    1   39    5
    38752.4 s4f  3F    1   40    7
    38755.2 s4f  3F    1   41    9
    38906.9 s7p  1P    1   42    3
    39539.0 s4f  1F    1   43    7
    39685.9 s6d  3D    1   44    3
    39690.8 s6d  3D    1   45    5
    39703.2 s6d  3D    1   46    7
    39733.1 s6d  1D    1   47    5
    41172.1 s8p  1P    1   48    3
    42462.4 s9p  1P    1   49    3
    43327.9 10p  1P    1   50    3
    43938.3 11p  1P    1   51    3
    44525.9 4d2 3P     1   52    1
    44596.0 4d2 3P     1   53    3
    44729.7 4d2 3P     1   54    5
    1   51 -1.500  2.2752E+03
    1   50 -1.500  2.3073E+03
    1   49 -1.500  2.3543E+03
    1   48 -1.750  2.4281E+03
    1   42 -1.960  2.5695E+03
    1   21 -2.150  2.9318E+03
    3   53 -0.530  3.3017E+03
    4   54 -0.927  3.3075E+03
    4   53  0.072  3.3222E+03
    4   52 -1.007  3.3300E+03
    5   54 -1.069  3.3512E+03
    5   53 -1.209  3.3663E+03
    3   44 -0.910  3.9408E+03
    4   45 -1.067  3.9693E+03
    4   44 -1.377  3.9700E+03
    5   46 -0.939  4.0304E+03
    5   45 -1.569  4.0324E+03
    2   37 -0.441  4.3188E+03
    4   37 -0.568  4.3617E+03
    5   37 -1.659  4.4380E+03
    1   12 -0.570  4.6073E+03
    4   28 -0.607  4.7223E+03
    3   27 -0.320  4.7419E+03
    4   27 -0.987  4.7843E+03
    5   28 -0.629  4.8119E+03
    4   26 -0.587  4.8321E+03
    6   39 -1.007  4.8550E+03
    7   40 -1.139  4.8687E+03
    4   24 -0.677  4.8725E+03
    4   23 -1.377  4.8761E+03
    5   27 -1.029  4.8763E+03
    8   41 -1.055  4.8920E+03
    5   25 -0.449  4.9623E+03
    5   24 -1.239  4.9679E+03
    9   43 -0.849  5.1560E+03
    6   35 -0.637  5.2222E+03
    6   34 -0.487  5.2251E+03
    7   36 -0.699  5.2293E+03
    7   35 -0.559  5.2385E+03
    8   36 -0.455  5.2569E+03
    9   42 -1.239  5.3298E+03
    7   31 -0.869  5.4508E+03
    8   31 -0.335  5.4809E+03
    6   30 -0.787  5.4861E+03
    7   30 -0.509  5.5042E+03
    6   29 -0.427  5.5218E+03
    8   30 -0.885  5.5348E+03
    7   29 -0.759  5.5400E+03
   10   47 -1.308  5.5433E+03
   10   38 -1.468  5.9701E+03
    7   20 -1.759  6.3457E+03
    6   18 -1.547  6.3639E+03
    6   17 -1.407  6.3699E+03
    6   16 -0.947  6.3807E+03
    8   20 -1.345  6.3865E+03
    7   18 -1.389  6.3882E+03
    8   19 -0.345  6.4085E+03
    8   16 -1.905  6.4466E+03
   10   33 -1.428  6.4658E+03
    7   15 -0.439  6.5040E+03
    8   15 -1.315  6.5468E+03
   10   32 -0.598  6.5502E+03
    6   14 -0.497  6.6173E+03
    7   14 -1.289  6.6435E+03
    3   13 -0.720  6.7910E+03
    4   13 -0.757  6.8783E+03
    1   11 -2.840  6.8926E+03
    5   13 -0.879  7.0701E+03
   10   28 -2.098  7.1531E+03
    9   21 -1.589  7.1671E+03
    9   20 -1.689  7.2321E+03
    9   16 -0.599  7.3094E+03
    9   14 -1.309  7.6215E+03
   10   22 -1.298  7.6731E+03
