 gf6501                                                                          
 gf-cutoff: N/A,  ionization potential (Ky):   3.40282347E+38
 compr thres: 0.0000
          53         104  number of levels and lines
        0.0 6s *(7.    1    1   17
     1016.4 6s *(7.    1    2   15
     3010.0 6s *(6.    1    3   15
     3542.4 6s *(6.    1    4   13
     5171.8 6s *(5.    1    5   13
     5235.0 6s *(5.    1    6   11
     6373.0 6s *(5.    1    7   13
     6912.5 6s *(4.    1    8   11
    11261.6 6s *7H     1    9   17
    12200.4 6s *7H     1   10   15
    13605.2 6s *7H     1   11   13
    19710.3            1   12   17
    21035.6            1   13   17
    21521.1            1   14   15
    22008.5            1   15   15
    23653.7            1   16   15
    23678.1            1   17   13
    25138.5            1   18   17
    25376.5            1   19   15
    25804.7 6p  (7.    1   20   15
    25975.2 6p  (7.    1   21   17
    26385.7            1   22   15
    26731.5            1   23   13
    27244.3            1   24   15
    28014.9 6p  (7.    1   25   17
    28209.5 6p  (7.    1   26   15
    28339.3 6p  (7.    1   27   13
    28488.8 6p  (7.    1   28   19
    28561.0            1   29   17
    28649.1 6p  (6.    1   30   15
    29407.0            1   31   15
    29803.4            1   32   13
    30068.3            1   33   13
    30148.7 6p  (5.    1   34   11
    30476.1            1   35   15
    30639.5 6p  (5.    1   36   13
    30895.5            1   37   15
    31078.5 6p  (6.    1   38   17
    31365.9            1   39   15
    31566.4 6p  (6.    1   40   13
    31879.2            1   41   13
    32023.7            1   42   11
    32369.1            1   43   13
    32687.2            1   44   13
    32853.6            1   45   13
    34577.2            1   46   13
    34804.9            1   47   15
    34875.6            1   48   13
    35007.9            1   49   15
    35080.3            1   50   17
    36602.0            1   51   17
    37193.9            1   52   17
    38030.2            1   53   15
    1   53 -1.234  2.6287E+03
    1   52 -1.878  2.6878E+03
    2   51 -0.985  2.8093E+03
    1   49 -1.736  2.8557E+03
    1   47 -1.929  2.8723E+03
    3   52 -1.179  2.9245E+03
    2   50 -1.772  2.9348E+03
    3   50 -1.559  3.1173E+03
    2   45 -1.418  3.1401E+03
    1   39 -1.233  3.1873E+03
    1   37 -1.910  3.2358E+03
    2   40 -1.625  3.2724E+03
    1   35 -1.105  3.2803E+03
    2   39 -1.776  3.2940E+03
    2   38 -1.664  3.3255E+03
    2   35 -1.683  3.3935E+03
    4   45 -1.205  3.4107E+03
    2   32 -1.031  3.4728E+03
    1   30 -1.666  3.4895E+03
    7   49 -1.358  3.4912E+03
    1   29 -1.931  3.5003E+03
    3   40 -0.805  3.5008E+03
    7   48 -0.487  3.5074E+03
    1   28 -0.340  3.5091E+03
    7   47 -0.926  3.5162E+03
    3   39 -1.085  3.5256E+03
    1   26 -0.980  3.5439E+03
    3   38 -0.245  3.5617E+03
    4   40 -0.718  3.5673E+03
    1   25 -0.600  3.5685E+03
    3   37 -0.913  3.5851E+03
    4   39 -1.280  3.5931E+03
    5   45 -1.021  3.6114E+03
    8   46 -0.806  3.6137E+03
    2   30 -1.448  3.6179E+03
    6   45 -0.797  3.6197E+03
    2   29 -1.454  3.6294E+03
    5   44 -0.639  3.6333E+03
    3   35 -1.333  3.6398E+03
    6   44 -0.563  3.6417E+03
    4   37 -0.769  3.6549E+03
    2   27 -0.486  3.6589E+03
    5   43 -1.147  3.6758E+03
    2   26 -0.576  3.6764E+03
    2   25 -0.806  3.7029E+03
    4   35 -0.708  3.7118E+03
    5   42 -1.369  3.7231E+03
    4   34 -1.099  3.7574E+03
    7   45 -1.191  3.7753E+03
    3   31 -1.262  3.7872E+03
    4   32 -0.877  3.8069E+03
    7   43 -0.862  3.8456E+03
    1   21 -0.850  3.8487E+03
    1   20 -0.630  3.8742E+03
    2   23 -1.965  3.8877E+03
    3   30 -0.786  3.8992E+03
    7   41 -0.784  3.9195E+03
    5   36 -0.735  3.9254E+03
    1   19 -1.463  3.9395E+03
    3   27 -1.139  3.9469E+03
    3   26 -1.984  3.9672E+03
    1   18 -1.046  3.9768E+03
    8   42 -0.940  3.9812E+03
    4   30 -0.764  3.9819E+03
    7   39 -1.326  4.0000E+03
    5   34 -0.663  4.0026E+03
    2   21 -0.606  4.0055E+03
    6   34 -0.693  4.0127E+03
    6   33 -1.349  4.0257E+03
    2   20 -0.996  4.0330E+03
    4   26 -1.394  4.0528E+03
    2   19 -1.849  4.1039E+03
    2   18 -1.239  4.1444E+03
    3   23 -1.587  4.2144E+03
    1   16 -1.810  4.2265E+03
    5   30 -1.072  4.2582E+03
    3   22 -2.046  4.2767E+03
    3   21 -1.481  4.3532E+03
    8   32 -1.163  4.3673E+03
    4   22 -2.255  4.3764E+03
    2   16 -2.079  4.4163E+03
    4   19 -1.737  4.5787E+03
    5   23 -2.400  4.6370E+03
    1   14 -2.214  4.6453E+03
    1   13 -2.046  4.7525E+03
    2   15 -3.006  4.7624E+03
    7   24 -2.170  4.7899E+03
    2   14 -2.609  4.8756E+03
    2   13 -2.611  4.9938E+03
    3   15 -2.478  5.2621E+03
    2   12 -3.233  5.3479E+03
    5   17 -2.590  5.4020E+03
    7   16 -2.586  5.7852E+03
    9   28 -1.611  5.8031E+03
    9   25 -1.632  5.9673E+03
   10   30 -2.176  6.0778E+03
   11   32 -2.087  6.1718E+03
   10   27 -2.323  6.1945E+03
   10   25 -2.099  6.3216E+03
   11   30 -1.918  6.6454E+03
   11   27 -1.707  6.7851E+03
    9   21 -1.474  6.7945E+03
    9   20 -1.992  6.8742E+03
   11   20 -1.436  8.1948E+03
